# rest frame wavelength [ang], flux, flux_unc
3881.65466 15.49798 6.64391
3884.62670 19.02630 6.70198
3887.60000 28.14522 6.84940
3890.57449 10.33777 6.52273
3893.55024 24.17842 6.70171
3896.52652 13.84835 6.45973
3899.50534 12.49006 6.53657
3902.48475 9.75664 6.38296
3905.46534 1.16165 6.16126
3908.44710 18.90486 6.45118
3911.43013 24.73861 6.46303
3914.41495 27.39355 6.41546
3917.39978 18.67922 6.26540
3920.38642 24.32497 6.32463
3923.37423 22.58265 6.30762
3926.36232 9.44279 6.04139
3929.35351 15.29489 6.12012
3932.34494 11.80728 5.98088
3935.33755 14.58743 6.01667
3938.33138 16.60686 5.94174
3941.32640 11.46660 5.87854
3944.32260 22.19571 5.98624
3947.31929 20.49369 5.97395
3950.31856 18.83597 5.92615
3953.31831 13.31117 5.78861
3956.31926 23.44127 5.97646
3959.32139 17.21183 5.84064
3962.32469 22.71065 5.87451
3965.32918 12.93666 5.78762
3968.33482 16.91287 5.86840
3971.34164 2.15225 5.60624
3974.34965 8.15555 5.59352
3977.35870 28.37502 5.79674
3980.36915 19.80128 5.58694
3983.38066 16.56760 5.45701
3986.39332 27.79082 5.65730
3989.40717 21.79618 5.57144
3992.42217 11.52794 5.50470
3995.43831 18.22758 5.62307
3998.45563 24.11055 5.73154
4001.47411 9.54146 5.46721
4004.49373 18.41164 5.54029
4007.51449 18.33551 5.51561
4010.53642 18.06799 5.52211
4013.55952 8.03406 5.30920
4016.58373 16.28079 5.41699
4019.60909 18.09994 5.41729
4022.63562 17.05452 5.39127
4025.66328 12.69034 5.31927
4028.69209 17.40890 5.33948
4031.72201 21.78670 5.39445
4034.75308 16.64635 5.28977
4037.78528 10.79644 5.28385
4040.81864 18.69943 5.33344
4043.85310 24.49019 5.41793
4046.88872 14.22613 5.26684
4049.92544 20.73361 5.27562
4052.96331 33.67723 5.38480
4056.00227 26.12537 5.28125
4059.04238 14.70639 5.01876
4062.08362 13.64522 5.00351
4065.12597 19.25814 5.09007
4068.16945 -1.36057 4.67153
4071.21401 25.51988 5.11548
4074.25986 25.93126 5.00199
4077.30652 19.56424 4.88019
4080.35444 9.42582 4.76073
4083.40349 18.88850 4.89251
4086.45362 10.37454 4.81485
4089.50486 12.54396 4.83733
4092.55722 13.95662 4.79963
4095.61067 7.42964 4.73189
4098.66521 15.33366 4.73765
4101.72085 18.90891 4.73899
4104.77761 7.51303 4.56007
4107.83544 24.22755 4.80568
4110.89514 24.82548 4.76999
4113.95440 29.56410 4.89223
4117.01555 19.02501 4.73778
4120.07776 13.93627 4.62309
4123.14105 21.37727 4.74005
4126.20544 15.11578 4.62303
4129.27090 22.18085 4.73140
4132.33744 13.01665 4.54927
4135.40506 23.02616 4.72438
4138.47378 23.67494 4.68798
4141.54382 18.06873 4.57459
4144.61444 16.11780 4.51968
4147.68752 26.92062 4.66474
4150.75938 20.68035 4.51297
4153.83344 12.15518 4.36201
4156.90860 15.96891 4.39716
4159.98482 13.86080 4.39990
4163.06196 12.12518 4.33768
4166.14041 15.87752 4.38216
4169.21983 9.02348 4.18973
4172.30029 17.48148 4.29177
4175.38183 14.86832 4.11871
4178.46442 21.28003 4.11487
4181.54805 13.82885 3.98360
4184.63273 18.25280 4.11013
4187.71847 20.90399 4.27767
4190.80530 18.10710 4.29329
4193.89313 21.00409 4.39383
4196.98201 14.19693 4.31044
4200.07195 20.44893 4.39775
4203.16292 12.59925 4.24514
4206.25492 8.02394 4.14979
4209.34799 27.61049 4.43964
4212.44208 20.70661 4.33023
4215.53727 16.24799 4.17378
4218.63340 16.93075 4.19828
4221.73062 15.98658 4.20962
4224.82886 10.18752 4.16672
4227.92801 19.89197 4.29736
4231.02838 19.65750 4.36416
4234.12972 24.62961 4.40931
4237.23208 24.14559 4.40590
4240.33548 19.82115 4.33227
4243.43985 17.24079 4.27091
4246.54527 21.53399 4.32240
4249.65172 27.26475 4.33472
4252.75916 26.19271 4.26262
4255.86766 33.36701 4.32357
4258.97710 31.78215 4.27715
4262.08763 28.75000 4.21740
4265.19913 22.72299 4.18035
4268.31168 29.63375 4.28302
4271.42518 18.00278 4.13348
4274.53971 29.65500 4.28399
4277.65525 15.41942 4.09140
4280.77180 18.21299 4.14870
4283.88932 39.50042 4.45690
4287.00787 32.23149 4.39905
4290.12742 25.63062 4.27250
4293.24796 37.05040 4.46247
4296.36949 28.52414 4.36716
4299.49201 22.26927 4.23997
4302.61549 23.84266 4.21250
4305.74004 32.66369 4.35818
4308.86557 28.86654 4.26965
4311.99204 38.06706 4.37978
4315.11951 29.26084 4.27371
4318.24797 33.52615 4.31315
4321.37740 36.52990 4.30922
4324.50780 39.04755 4.31199
4327.63921 36.74799 4.23795
4330.77158 29.25146 4.15673
4333.90494 32.43728 4.18898
4337.03928 37.51101 4.21547
4340.17456 35.87446 4.24200
4343.31082 38.56301 4.27326
4346.44807 44.16618 4.33443
4349.58627 44.17593 4.33968
4352.72543 42.70193 4.29719
4355.86559 42.91914 4.28342
4359.00669 45.80832 4.32810
4362.14875 45.87419 4.32000
4365.29179 44.22092 4.26037
4368.43576 50.90443 4.36394
4371.58071 47.64584 4.34397
4374.72659 42.23189 4.31884
4377.87344 46.21404 4.32424
4381.02126 44.08214 4.27991
4384.17000 44.51890 4.26821
4387.31971 37.16064 4.14974
4390.47039 40.95901 4.13769
4393.62197 36.82109 4.05474
4396.77451 35.41037 4.03300
4399.92800 33.34601 3.95715
4403.08240 35.87735 4.02809
4406.23779 40.19949 4.06244
4409.39408 42.15119 4.08114
4412.55132 41.19666 4.08316
4415.70952 43.50575 4.08443
4418.86861 31.75104 3.91867
4422.02866 39.79739 4.00612
4425.18966 47.95033 4.07049
4428.35157 38.60265 3.94815
4431.51437 36.31929 3.95253
4434.67805 34.25404 3.88152
4437.84282 36.94319 3.93229
4441.00844 40.33448 3.97273
4444.17497 39.26705 3.90821
4447.34242 33.46494 3.85248
4450.51078 30.72370 3.79859
4453.68007 34.22923 3.81298
4456.85028 33.18044 3.80721
4460.02141 28.44933 3.72444
4463.19345 31.91652 3.73389
4466.36635 32.94512 3.77575
4469.54019 33.09428 3.76902
4472.71498 35.97037 3.79011
4475.89064 37.91889 3.81263
4479.06722 34.47352 3.76417
4482.24468 31.76520 3.71914
4485.42306 37.29482 3.77999
4488.60234 34.37308 3.72706
4491.78252 36.67535 3.74861
4494.96357 38.85498 3.78222
4498.14553 35.02934 3.68061
4501.32841 42.92623 3.78502
4504.51217 34.12103 3.64473
4507.69681 35.92764 3.65312
4510.88233 40.74689 3.71160
4514.06880 35.83479 3.60071
4517.25609 43.10611 3.70001
4520.44430 43.03708 3.70522
4523.63338 42.21688 3.69692
4526.82334 38.70118 3.65839
4530.01420 59.66789 3.84797
4533.20591 49.94177 3.74320
4536.39854 43.91759 3.65876
4539.59199 43.19795 3.66687
4542.78638 43.23999 3.64326
4545.98160 47.06521 3.68376
4549.17772 48.72904 3.68598
4552.37466 42.09228 3.60267
4555.57252 47.94775 3.67389
4558.77122 41.94555 3.57835
4561.97082 48.75213 3.63258
4565.17128 41.63155 3.50586
4568.37259 44.80587 3.52922
4571.57476 43.69806 3.54171
4574.77778 40.55179 3.49212
4577.98166 54.22751 3.68858
4581.18642 43.25671 3.55366
4584.39203 44.24616 3.55977
4587.59817 33.29126 3.38485
4590.80580 40.99620 3.47533
4594.01395 43.84438 3.50751
4597.22299 46.05147 3.50914
4600.43285 44.36447 3.48238
4603.64355 39.42976 3.43189
4606.85512 49.38929 3.55400
4610.06751 43.26397 3.47235
4613.28075 41.24842 3.44263
4616.49484 43.47210 3.43289
4619.70978 49.29766 3.48441
4622.92557 43.94870 3.39349
4626.14179 50.06698 3.43599
4629.35960 36.09273 3.31437
4632.57788 48.85874 3.45850
4635.79697 49.69155 3.48043
4639.01692 45.55932 3.42299
4642.23770 43.64318 3.38545
4645.45931 38.98566 3.31791
4648.68175 46.55313 3.39286
4651.90502 45.14543 3.37779
4655.12907 49.84334 3.42840
4658.35399 50.75614 3.46423
4661.57970 46.68313 3.40420
4664.80625 41.52921 3.31540
4668.03360 41.01177 3.30547
4671.26180 50.70900 3.41183
4674.49098 48.67130 3.37747
4677.72064 45.76927 3.36162
4680.95126 43.59346 3.31969
4684.18269 49.79592 3.39659
4687.41494 41.07561 3.26529
4690.64800 41.00270 3.27918
4693.88189 44.87513 3.29202
4697.11657 44.38460 3.28298
4700.35204 50.27553 3.33387
4703.58831 39.61922 3.20816
4706.82541 48.25331 3.29992
4710.06331 43.95307 3.21871
4713.30196 50.15060 3.24558
4716.54147 43.15884 3.09300
4719.78176 47.96152 3.15269
4723.02286 41.56049 3.06117
4726.26471 33.66955 2.97097
4729.50737 39.20442 3.06418
4732.75084 38.36672 3.07889
4735.99510 38.55948 3.09334
4739.24013 34.98622 3.03247
4742.48597 35.68103 3.06252
4745.73257 39.94548 3.08243
4748.97996 41.26448 3.11067
4752.22815 38.22665 3.06677
4755.47710 36.57282 3.06575
4758.72686 33.73877 3.02244
4761.97739 40.28088 3.08092
4765.22877 31.64180 2.96012
4768.48085 37.90315 3.02521
4771.73362 38.70969 2.99364
4774.98724 36.77646 2.96074
4778.24165 29.64658 2.86566
4781.49680 31.96051 2.90406
4784.75274 36.27959 2.96461
4788.00945 28.87752 2.88357
4791.26692 34.11606 2.93816
4794.52516 40.47109 2.99292
4797.78419 35.79743 2.93334
4801.04394 33.91189 2.91702
4804.30448 34.09720 2.93424
4807.56575 31.79378 2.87754
4810.82812 33.58855 2.87493
4814.09061 31.87416 2.88201
4817.35418 35.61648 2.89347
4820.61851 36.09184 2.90370
4823.88359 33.02885 2.85338
4827.14940 32.90245 2.86380
4830.41595 34.77275 2.86684
4833.68328 32.92479 2.83554
4836.95136 32.56488 2.81975
4840.22016 32.97144 2.81127
4843.48976 35.68848 2.83521
4846.76008 24.11251 2.69975
4850.03112 34.73396 2.82008
4853.30291 31.14834 2.76499
4856.57544 31.58023 2.75497
4859.84871 31.26780 2.74284
4863.12273 35.90237 2.77279
4866.39749 37.25729 2.77322
4869.67296 32.50682 2.70716
4872.94920 28.42470 2.64795
4876.22612 35.73097 2.74012
4879.50381 41.58567 2.82122
4882.78221 34.35522 2.72921
4886.06138 35.81247 2.72599
4889.34122 33.87891 2.71309
4892.62182 32.54207 2.67339
4895.90314 38.31354 2.73989
4899.18518 32.49100 2.67460
4902.46796 38.57042 2.74280
4905.75143 36.94039 2.72358
4909.03563 38.66581 2.75239
4912.32056 38.26457 2.75904
4915.60620 29.98107 2.65072
4918.89255 33.98095 2.68189
4922.17961 36.13030 2.68023
4925.46739 41.09358 2.73317
4928.75593 41.95850 2.72433
4932.04510 38.55220 2.69042
4935.33502 47.80867 2.79991
4938.62564 40.47353 2.71483
4941.91697 42.63882 2.73459
4945.20899 47.80536 2.78263
4948.50174 41.26579 2.69702
4951.79519 47.52285 2.77121
4955.08936 41.23291 2.68064
4958.38417 47.83628 2.76470
4961.67974 51.18720 2.79998
4964.97599 45.93699 2.74046
4968.27292 51.20643 2.78200
4971.57056 44.68009 2.69752
4974.86887 47.27409 2.72511
4978.16788 43.59137 2.67447
4981.46760 47.26745 2.69280
4984.76800 50.43036 2.74502
4988.06911 50.08555 2.73341
4991.37087 51.75453 2.73596
4994.67335 50.41348 2.72743
4997.97650 50.76173 2.72021
5001.28035 51.64867 2.71663
5004.58485 56.43942 2.77940
5007.89005 49.14698 2.69464
5011.19595 54.82642 2.71395
5014.50250 56.23538 2.69186
5017.80977 49.36454 2.59925
5021.11766 51.24634 2.61628
5024.42625 53.64405 2.64248
5027.73552 57.44441 2.67344
5031.04545 56.34956 2.68095
5034.35635 58.14064 2.68371
5037.66734 58.43009 2.68997
5040.97931 60.28601 2.73687
5044.29197 60.24770 2.74819
5047.60524 61.28729 2.74923
5050.91917 56.08746 2.69067
5054.23377 64.12998 2.76616
5057.54906 63.58489 2.76453
5060.86501 56.90510 2.68794
5064.18160 65.20556 2.77715
5067.49888 63.68907 2.75480
5070.81681 66.63373 2.76160
5074.13540 65.84564 2.73904
5077.45462 66.33804 2.74759
5080.77455 69.92599 2.79045
5084.09507 70.22076 2.79906
5087.41629 75.02097 2.83143
5090.73809 68.55264 2.77252
5094.06061 69.74230 2.78183
5097.38374 75.44311 2.84306
5100.70598 73.24078 2.76220
5104.03198 75.87812 2.80115
5107.35707 74.87863 2.78037
5110.68281 66.82620 2.67427
5114.00916 76.08987 2.75717
5117.33616 75.01108 2.74437
5120.66385 72.20181 2.72350
5123.99213 77.97743 2.79359
5127.32107 79.23965 2.81839
5130.65067 77.18655 2.79373
5133.98115 75.00435 2.75200
5137.31170 79.22466 2.80739
5140.64316 75.99048 2.77218
5143.97530 77.09007 2.76365
5147.30802 81.26755 2.80015
5150.64139 86.90526 2.86566
5153.97539 83.43782 2.83079
5157.31001 80.58187 2.80031
5160.64531 85.77304 2.83994
5163.98115 79.55237 2.76685
5167.31764 83.07610 2.78539
5170.65478 78.25526 2.73976
5173.99252 81.47272 2.75889
5177.33146 84.55382 2.76113
5180.66987 81.40735 2.75066
5184.00948 75.65089 2.69168
5187.34971 76.29366 2.69579
5190.69055 80.53167 2.72956
5194.03199 75.70375 2.69330
5197.37408 77.87394 2.70249
5200.71676 76.47928 2.68264
5204.06004 75.19830 2.67418
5207.40393 71.81596 2.61710
5210.74844 73.57290 2.62977
5214.09359 70.81137 2.59316
5217.43837 75.87820 2.62685
5220.78511 76.65888 2.63031
5224.13259 67.90478 2.56752
5227.48011 70.66900 2.58202
5230.82828 68.77789 2.54888
5234.17702 69.51671 2.55314
5237.52637 70.90269 2.54248
5240.87629 64.41149 2.47143
5244.22684 65.02241 2.47104
5247.57796 69.85775 2.52492
5250.92972 70.63704 2.52498
5254.28204 66.68698 2.49505
5257.63497 66.58900 2.49029
5260.98846 64.52446 2.46471
5264.34259 67.97273 2.51039
5267.69726 68.58937 2.49512
5271.05257 70.95319 2.51325
5274.40756 66.27300 2.44951
5277.76489 68.69299 2.50023
5281.12197 67.98489 2.47701
5284.47959 67.64666 2.46733
5287.83781 65.99674 2.45796
5291.19471 65.22893 2.45126
5294.55597 65.98675 2.44038
5297.91591 66.04776 2.44599
5301.27648 64.56576 2.43391
5304.63759 67.87856 2.45729
5307.99926 67.36329 2.45045
5311.36156 67.21437 2.43694
5314.72439 67.35363 2.42802
5318.08781 64.04284 2.39416
5321.45181 67.97744 2.42917
5324.81638 66.02412 2.40539
5328.18149 66.08112 2.40464
5331.54719 65.91208 2.41007
5334.91344 70.63695 2.44936
5338.28104 75.75092 2.47872
5341.64768 67.51980 2.40827
5345.01566 67.06689 2.40261
5348.38419 70.62179 2.43047
5351.75329 68.51115 2.40602
5355.12295 66.91412 2.39113
5358.49337 65.08861 2.35167
5361.86394 61.58634 2.33760
5365.23529 63.52119 2.34840
5368.60715 59.21450 2.29269
5371.97963 59.92737 2.30494
5375.35260 59.83344 2.30770
5378.72618 62.20513 2.33491
5382.10027 59.22665 2.30586
5385.47496 66.14003 2.37132
5388.85016 60.56359 2.30913
5392.22596 57.33588 2.25934
5395.60224 55.69165 2.25259
5398.97911 61.90071 2.30087
5402.35650 59.68405 2.34732
5405.73443 56.60452 2.79754
5409.11296 66.04172 3.39832
5412.49200 58.21238 3.46647
5415.87159 61.57712 3.47469
5419.25173 52.00911 3.30125
5422.63243 56.83916 2.75926
5426.01361 54.49814 2.21971
5429.39543 58.76139 2.23259
5432.77763 54.25235 2.18370
5436.16044 53.20272 2.18254
5439.54380 53.19920 2.17963
5442.92770 52.51741 2.17217
5446.31214 57.77889 2.21662
5449.69708 56.23372 2.19537
5453.08259 57.49491 2.19791
5456.46857 52.75737 2.15596
5459.85514 57.36568 2.19070
5463.24222 58.40770 2.21480
5466.62980 55.93542 2.17608
5470.01794 56.30828 2.18137
5473.40659 60.38259 2.22544
5476.79579 58.89015 2.20278
5480.18548 58.75460 2.19640
5483.57570 55.23582 2.15455
5486.96644 60.28791 2.20475
5490.35765 56.52977 2.15309
5493.74950 57.00545 2.15593
5497.14182 60.67845 2.19004
5500.53469 56.96260 2.15434
5503.92754 57.78638 2.15458
5507.32182 58.00939 2.16777
5510.71443 57.72998 2.20592
5514.11105 60.66493 2.20585
5517.50648 60.96253 2.19442
5520.90236 62.66128 2.21571
5524.29878 62.95994 2.20921
5527.69571 59.80142 2.18167
5531.09315 59.02701 2.16374
5534.49108 60.39702 2.16981
5537.88951 58.03916 2.13507
5541.28848 61.97168 2.17442
5544.68792 59.29141 2.14784
5548.08789 60.11441 2.15660
5551.48835 63.39123 2.19681
5554.88932 58.24489 2.14793
5558.29079 56.28631 2.11901
5561.69275 58.66285 2.15518
5565.09520 53.72036 2.09863
5568.49818 58.67112 2.13917
5571.90164 57.61735 2.11957
5575.30559 58.92221 2.12862
5578.71001 61.55208 2.15213
5582.11613 58.18195 2.10387
5585.52038 59.94082 2.12733
5588.92633 60.33710 2.13001
5592.33273 57.05526 2.09859
5595.73980 58.74512 2.09972
5599.14677 57.11231 2.07028
5602.55442 58.14166 2.06109
5605.96153 57.69282 2.02776
5609.37041 59.42307 2.04466
5612.77976 60.83555 2.05855
5616.18965 59.83815 2.05782
5619.60164 57.86970 2.08629
5623.01243 60.24525 2.11433
5626.42370 64.81083 2.15925
5629.83545 57.78197 2.08278
5633.24767 63.57201 2.14317
5636.66040 61.13596 2.12148
5640.07358 61.98361 2.11648
5643.48726 63.56693 2.12663
5646.90136 58.91818 2.09315
5650.31603 59.90578 2.10469
5653.73111 60.89477 2.11086
5657.14663 60.77017 2.11394
5660.56272 59.24363 2.09596
5663.97922 57.79290 2.07355
5667.39617 60.73415 2.10721
5670.81366 59.62328 2.09766
5674.23154 56.36251 2.05848
5677.64993 60.05641 2.08474
5681.06877 58.58348 2.06312
5684.48811 62.30663 2.10658
5687.90788 60.81719 2.10702
5691.32812 56.84536 2.07755
5694.74884 57.69607 2.09258
5698.17001 58.59150 2.10976
5701.59164 60.96397 2.11582
5705.01370 59.84263 2.10382
5708.43625 57.25517 2.17751
5711.85924 56.10224 2.36153
5715.28271 57.80330 2.53599
5718.70665 55.66777 2.61833
5722.13104 53.95571 2.59633
5725.55588 59.22099 2.49050
5728.98119 58.34589 2.29853
5732.40692 55.67871 2.11407
5735.83310 57.61257 2.05441
5739.25972 56.88835 2.05854
5742.68684 57.10337 2.04888
5746.11439 56.47796 2.04266
5749.54237 58.15755 2.05622
5752.97080 62.12240 2.09177
5756.39972 56.66646 2.03699
5759.82904 57.99545 2.03645
5763.25881 60.31928 2.06529
5766.68904 56.26700 2.02228
5770.11971 57.06119 2.01232
5773.55070 55.32752 1.99831
5776.98236 56.59159 2.01685
5780.41438 57.64081 2.01359
5783.84681 59.49929 2.03261
5787.27967 58.52079 2.01356
5790.71296 56.70098 1.99204
5794.14671 56.38030 1.98611
5797.58068 60.10719 2.01596
5801.01554 57.81823 2.00637
5804.45058 56.37492 1.97460
5807.88607 54.32022 1.94830
5811.32197 56.84389 1.96433
5814.75833 61.87698 2.00239
5818.19510 54.41008 1.93856
5821.63235 59.65076 1.98888
5825.06997 55.96987 1.95163
5828.50806 59.80084 1.98773
5831.94659 61.23503 1.98992
5835.38551 57.69456 1.94698
5838.82484 63.42739 2.00630
5842.26464 58.82357 1.95274
5845.70483 58.26030 1.94021
5849.14545 60.21971 1.97212
5852.58530 51.45245 1.86872
5856.02798 59.86434 1.96657
5859.46989 62.88640 1.99036
5862.91220 54.34280 1.90490
5866.35629 56.35360 1.92630
5869.79810 59.20751 1.95040
5873.24169 63.46949 1.98259
5876.68565 61.08582 1.95267
5880.13008 60.87435 1.95769
5883.57286 57.51010 1.94108
5887.02013 56.79627 1.91357
5890.46578 58.98319 1.93138
5893.91185 61.18177 1.94648
5897.35830 57.89812 1.91578
5900.80519 59.64231 1.92872
5904.25250 58.39672 1.90685
5907.70022 59.43785 1.91514
5911.14833 57.96357 1.90463
5914.59687 55.63267 1.88292
5918.04578 57.25109 1.89300
5921.49514 58.59425 1.90774
5924.94487 55.54654 1.87599
5928.39503 57.61919 1.88992
5931.84557 56.70324 1.88183
5935.29657 58.47180 1.90180
5938.74585 55.66855 1.88025
5942.19968 59.22006 1.90221
5945.65185 58.43243 1.89374
5949.10443 58.46136 1.88878
5952.55736 61.60779 1.92001
5956.01073 60.18371 1.90969
5959.46450 60.70982 1.91758
5962.91866 58.89574 1.90110
5966.37322 58.72540 1.90041
5969.82819 57.11275 1.87321
5973.28352 57.94414 1.87274
5976.73925 55.37021 1.84184
5980.19537 56.03108 1.84934
5983.65170 56.47861 1.84913
5987.10883 56.79547 1.86696
5990.56613 56.57216 1.86585
5994.02200 52.84925 1.83605
5997.48196 55.90519 1.84983
6000.94043 55.87097 1.84680
6004.39809 54.93050 1.82319
6007.85667 51.94296 1.80034
6011.31820 53.40510 1.81249
6014.77600 51.61218 1.80514
6018.23863 50.33657 1.79421
6021.69943 49.11398 1.77555
6025.16062 51.64335 1.79959
6028.62216 48.70898 1.77087
6032.08408 46.79354 1.75367
6035.54644 48.70448 1.77031
6039.00915 45.09774 1.72258
6042.47221 45.38629 1.73439
6045.93571 41.46466 1.71500
6049.39952 39.57621 1.72432
6052.86341 43.65090 1.75933
6056.32835 42.55253 1.75870
6059.79333 38.88451 1.70509
6063.25867 38.39790 1.67134
6066.72438 40.48696 1.68802
6070.19048 40.26529 1.69470
6073.65695 36.47371 1.66088
6077.12378 39.00184 1.70573
6080.59101 36.59414 1.66994
6084.05860 36.41265 1.63954
6087.52657 35.96473 1.61622
6090.99486 33.08177 1.57402
6094.46356 36.32110 1.61840
6097.93263 37.46225 1.64522
6101.40205 34.49234 1.61131
6104.87184 32.96598 1.60895
6108.34201 37.23732 1.70768
6111.81199 38.51973 1.74452
6115.28343 37.71836 1.75522
6118.75468 35.65739 1.75122
6122.22629 35.29081 1.71373
6125.69826 37.05995 1.66874
6129.17064 36.68215 1.63211
6132.64333 36.20867 1.59728
6136.11640 37.09636 1.62331
6139.58979 37.38957 1.64651
6143.06359 37.08336 1.64137
6146.53773 38.70368 1.65674
6150.01222 36.96788 1.62781
6153.48709 37.59212 1.61631
6156.96230 39.96406 1.62764
6160.43786 34.45911 1.58228
6163.91378 37.23075 1.62206
6167.39003 36.96148 1.62968
6170.86668 40.77455 1.68790
6174.34365 40.05984 1.68406
6177.82100 41.01010 1.68167
6181.29868 41.55416 1.67158
6184.77670 41.82179 1.66142
6188.25290 43.45593 1.68161
6191.73383 42.89794 1.65640
6195.21292 45.03075 1.70328
6198.69234 43.09774 1.67076
6202.17212 42.48235 1.66224
6205.65226 45.32698 1.68148
6209.13274 45.07733 1.67163
6212.61357 45.88877 1.67087
6216.09472 44.67932 1.65383
6219.57604 43.88839 1.63432
6223.05804 48.38385 1.70052
6226.54026 47.96297 1.68994
6230.02280 49.06614 1.71197
6233.50568 46.88610 1.68582
6236.98885 48.37782 1.70416
6240.47245 45.88001 1.67765
6243.95634 47.98291 1.69117
6247.44058 52.09882 1.72643
6250.92512 49.30775 1.70878
6254.41006 51.45407 1.72497
6257.89538 47.46497 1.67821
6261.38054 47.25114 1.66746
6264.86681 50.09939 1.71337
6268.35304 51.61470 1.74705
6271.83963 46.96873 1.72298
6275.32660 52.56104 1.78320
6278.81383 49.19075 1.75587
6282.30144 51.42181 1.76510
6285.78934 51.01792 1.74606
6289.27760 52.32112 1.73732
6292.76617 48.87826 1.69534
6296.25510 48.29101 1.67252
6299.74432 46.77676 1.67291
6303.23168 51.33839 1.76691
6306.72380 49.89568 1.75002
6310.21385 52.99145 1.78128
6313.70461 52.35616 1.78341
6317.19545 49.93901 1.73766
6320.68649 51.89658 1.71665
6324.17640 49.06055 1.68421
6327.66823 49.07284 1.68660
6331.16226 52.10523 1.72336
6334.65250 48.85429 1.72330
6338.14757 53.06910 1.76531
6341.64072 49.77539 1.72723
6345.13419 52.21737 1.75524
6348.62799 49.46331 1.72437
6352.12030 45.94570 1.66622
6355.61651 49.11676 1.71926
6359.11125 50.64604 1.74331
6362.60732 51.75027 1.73334
6366.10170 49.22099 1.71507
6369.59743 49.37795 1.70314
6373.09342 50.98254 1.69587
6376.58977 49.62593 1.69277
6380.08416 45.18349 1.67349
6383.58339 50.13260 1.71109
6387.07885 51.42835 1.72314
6390.57824 48.68930 1.69099
6394.07617 48.32326 1.66126
6397.57437 48.76187 1.65547
6401.07291 46.85976 1.63811
6404.56993 47.46253 1.64790
6408.07091 48.23511 1.66962
6411.56812 44.98905 1.63883
6415.06788 46.93561 1.65031
6418.57021 48.05028 1.64756
6422.07124 49.26161 1.63529
6425.57128 45.19263 1.59912
6429.07230 46.27648 1.61046
6432.57362 47.90116 1.63226
6436.07525 47.50633 1.62733
6439.57822 46.42456 1.61086
6443.07939 47.84207 1.62850
6446.58194 46.17082 1.60439
6450.08475 43.97468 1.58377
6453.58773 45.45326 1.58176
6457.09135 43.85414 1.57499
6460.59359 41.47810 1.53261
6464.09915 43.85314 1.57423
6467.60346 45.10046 1.58852
6471.10815 43.31259 1.56164
6474.61273 42.90126 1.54631
6478.11833 46.52252 1.58927
6481.62389 44.52379 1.56927
6485.12973 44.63378 1.56718
6488.63407 43.12284 1.54924
6492.14052 43.08763 1.54600
6495.64727 42.14465 1.53958
6499.15432 40.38484 1.50935
6502.66341 43.00883 1.54349
6506.17084 44.14047 1.54720
6509.67899 44.63975 1.55416
6513.18813 44.15336 1.54896
6516.69570 46.59826 1.58304
6520.20448 41.89899 1.52703
6523.71377 44.05923 1.55341
6527.22297 40.94629 1.52600
6530.73267 42.16562 1.51346
6534.24370 42.93203 1.53101
6537.75396 43.93385 1.54696
6541.26346 41.97370 1.52760
6544.77253 40.92632 1.51248
6548.28366 42.56396 1.52368
6551.79684 43.09416 1.52637
6555.30855 42.32012 1.51349
6558.82052 43.21117 1.52725
6562.33283 45.74922 1.55957
6565.84364 37.96935 1.46312
6569.35826 41.04124 1.49875
6572.87205 44.12424 1.52582
6576.38483 43.13356 1.52348
6579.89676 42.92938 1.51215
6583.41131 38.73131 1.45091
6586.92506 41.03979 1.49942
6590.44136 39.78158 1.48082
6593.95604 43.41553 1.52030
6597.47133 39.97678 1.48082
6600.98675 39.57029 1.47946
6604.50067 40.78342 1.48087
6608.01840 42.98068 1.51761
6611.53466 36.73512 1.43951
6615.04943 39.05125 1.45562
6618.56801 39.74588 1.48624
6622.08336 35.47729 1.47678
6625.60073 41.05295 1.59268
6629.12009 38.98834 1.61346
6632.63803 37.92271 1.61173
6636.15455 37.14567 1.59242
6639.67471 38.75812 1.55305
6643.19347 37.38320 1.48790
6646.71246 36.87498 1.45194
6650.23180 39.27608 1.47184
6653.75136 37.95274 1.47733
6657.27120 38.24360 1.55681
6660.79133 37.77945 1.56470
6664.31173 35.00807 1.52653
6667.83243 32.34374 1.48694
6671.35339 29.10304 1.38488
6674.87455 29.12226 1.32569
6678.39435 31.63698 1.34690
6681.91782 31.54598 1.37469
6685.43985 31.99900 1.39323
6688.96213 33.26270 1.39618
6692.48302 32.42408 1.38756
6696.00757 29.61651 1.35819
6699.53066 34.17651 1.39186
6703.05404 34.39584 1.41874
6706.57768 30.62598 1.39361
6710.10161 35.05018 1.42673
6713.62575 36.05266 1.47827
6717.14993 37.16168 1.50957
6720.67494 36.90454 1.48896
6724.19994 36.65435 1.47606
6727.72518 34.93037 1.45214
6731.25070 34.29729 1.42005
6734.77645 33.38151 1.40263
6738.30078 36.36368 1.46553
6741.82712 34.04232 1.47943
6745.35369 36.14725 1.47894
6748.88218 33.71423 1.45120
6752.40742 37.18476 1.46800
6755.93666 32.65862 1.38348
6759.46427 34.20328 1.39157
6762.99212 34.34940 1.40673
6766.52026 35.40047 1.43665
6770.04866 35.92737 1.47002
6773.57536 34.39882 1.47337
6777.10623 36.30121 1.44313
6780.63492 31.95573 1.37397
6784.16485 33.59987 1.37643
6787.69168 36.75442 1.39091
6791.22290 35.46461 1.37410
6794.75415 36.92442 1.39719
6798.28521 33.82792 1.37635
6801.81560 33.10111 1.37034
6805.34688 33.85453 1.38244
6808.87815 35.86274 1.39589
6812.40791 32.30322 1.34909
6815.94178 37.88288 1.39369
6819.47236 32.62662 1.31642
6823.00390 34.48331 1.35331
6826.53815 37.20320 1.38589
6830.06989 36.62309 1.37577
6833.60383 35.44191 1.38390
6837.13720 34.00643 1.37890
6840.67071 35.88695 1.40503
6844.20450 32.42904 1.37323
6847.73854 32.78580 1.37652
6851.27281 34.72428 1.38059
6854.80735 33.86142 1.36068
6858.34282 32.46493 1.32754
6861.87616 32.01022 1.32356
6865.41247 33.52403 1.36014
6868.94801 33.80514 1.36109
6872.48377 35.56099 1.38020
6876.02211 35.99366 1.36871
6879.55734 31.56344 1.30017
6883.09714 37.29479 1.36869
6886.63723 35.34092 1.35129
6890.17109 33.95447 1.31534
6893.71552 34.55966 1.37437
6897.25621 33.91135 1.45358
6900.78783 31.86988 1.44314
6904.32906 35.55318 1.60389
6907.85292 31.91613 1.64504
6911.38104 37.71809 1.76836
6914.91336 34.68452 1.57755
6918.45594 31.27865 1.38534
6921.99603 30.55766 1.39334
6925.54215 32.59170 1.37324
6929.08945 31.55448 1.31704
6932.62994 31.76940 1.33016
6936.17016 33.00708 1.34706
6939.71062 31.96646 1.32979
6943.25167 32.43757 1.32456
6946.79226 33.02383 1.32707
6950.33176 29.89653 1.28432
6953.87488 33.26211 1.32738
6957.41676 30.53123 1.28366
6960.95748 32.01728 1.28619
6964.49891 30.76235 1.28111
6968.04301 29.97517 1.27658
6971.58564 28.43301 1.23867
6975.12684 30.09201 1.25148
6978.67160 28.05609 1.22253
6982.21496 29.65599 1.24405
6985.75854 29.15684 1.24012
6989.30239 27.59239 1.21551
6992.84768 29.73518 1.24211
6996.38906 30.34919 1.24893
6999.93355 32.19252 1.27490
7003.47912 28.94820 1.23882
7007.02582 33.36498 1.30088
7010.57036 29.76424 1.26414
7014.11584 30.39848 1.26929
7017.66148 29.41377 1.27540
7021.20591 28.05060 1.34693
7024.75366 30.47304 1.50492
7028.30012 27.70188 1.55663
7031.84679 29.92745 1.59017
7035.39373 28.56212 1.54950
7038.94084 31.38413 1.48147
7042.48824 30.66073 1.35920
7046.03416 31.65085 1.30835
7049.58203 30.22680 1.27784
7053.13172 29.94575 1.28458
7056.68002 28.17936 1.41248
7060.22857 28.17241 1.49132
7063.77765 30.27704 1.53524
7067.32633 27.55498 1.55864
7070.87411 31.37884 1.51699
7074.42508 31.46855 1.39994
7077.97318 31.10249 1.37741
7081.52469 31.50130 1.33631
7085.07323 31.93905 1.34056
7088.62526 31.45362 1.34862
7092.17585 29.13522 1.32579
7095.72670 30.86877 1.45097
7099.27795 30.01851 1.45536
7102.82913 31.09564 1.44737
7106.37917 25.79267 1.40685
7109.93243 30.66063 1.45758
7113.48566 31.37838 1.34457
7117.03663 29.67013 1.38292
7120.58910 32.94123 1.55516
7124.14180 27.57428 1.47050
7127.69470 30.60298 1.47603
7131.24786 29.89954 1.47332
7134.80125 30.76700 1.38746
7138.35482 29.83034 1.31805
7141.90863 30.70058 1.33401
7145.46267 32.44554 1.40930
7149.01698 28.37766 1.44881
7152.57148 30.24263 1.42845
7156.12467 29.69544 1.38961
7159.68118 27.69205 1.37221
7163.23471 27.33709 1.24149
7166.79302 29.48481 1.23219
7170.34700 32.67514 1.30750
7173.90321 31.48751 1.30504
7177.45774 29.51537 1.33097
7181.01411 27.54104 1.35328
7184.57216 28.25393 1.33775
7188.12890 30.72621 1.34696
7191.68429 28.53561 1.30557
7195.24314 29.60139 1.24225
7198.79962 24.82705 1.15369
7202.35785 27.90581 1.19776
7205.91444 28.02794 1.21877
7209.47414 30.73658 1.26610
7213.03247 29.13975 1.27705
7216.59101 28.45846 1.29979
7220.14819 26.61803 1.25349
7223.70876 27.68816 1.24929
7227.26798 28.93474 1.25198
7230.82872 27.94505 1.18727
7234.38705 26.22187 1.16864
7237.94692 25.40047 1.17655
7241.50702 27.26020 1.21145
7245.06733 26.32742 1.22374
7248.62910 28.26016 1.25801
7252.18861 28.29974 1.28819
7255.74958 24.73068 1.25848
7259.31055 26.86180 1.29663
7262.87231 28.51205 1.29411
7266.43229 27.73192 1.25645
7269.99413 27.28510 1.24082
7273.55623 26.13838 1.18639
7277.11850 24.00854 1.13651
7280.68101 26.14595 1.16965
7284.24467 24.94552 1.13340
7287.80827 27.06535 1.16853
7291.37145 24.21068 1.14320
7294.93480 23.81754 1.18301
7298.49843 26.67652 1.31135
7302.06228 26.59601 1.33165
7305.62629 24.56515 1.32747
7309.19059 24.51615 1.32140
7312.75356 24.05757 1.22281
7316.32109 27.03310 1.20385
7319.88467 23.33523 1.13353
7323.44820 26.48139 1.15115
7327.01284 22.50615 1.14961
7330.57916 23.99502 1.13179
7334.14624 24.22973 1.14012
7337.71115 23.88728 1.13145
7341.27703 23.21623 1.15793
7344.84513 25.23646 1.24698
7348.41179 24.66066 1.23776
7351.97866 24.90392 1.24490
7355.54777 27.00149 1.27590
7359.11308 25.56153 1.22151
7362.67902 24.40526 1.15008
7366.24830 21.89784 1.12318
7369.81624 17.72482 1.07243
7373.38441 16.44528 1.00802
7376.95279 11.55285 0.88199
7380.52134 9.66218 0.82835
7384.09014 9.72019 0.81224
7387.65916 11.51154 0.84893
7391.22840 13.96994 0.93514
7394.79786 14.69503 0.95345
7398.36751 14.81237 0.99451
7401.93739 16.85014 1.02637
7405.50749 14.05635 0.95662
7409.07778 13.27628 0.94287
7412.64833 14.93746 0.95203
7416.21760 12.96687 0.89006
7419.78998 15.31433 0.94167
7423.36117 17.70018 1.00001
7426.93255 17.67188 1.00984
7430.50412 18.05654 1.03702
7434.07592 19.45642 1.07434
7437.64794 19.80423 1.07765
7441.22017 20.01652 1.07553
7444.79262 22.86681 1.11660
7448.36510 22.23351 1.07194
7451.93814 23.12631 1.10719
7455.51123 24.99535 1.13643
7459.08445 25.08676 1.14125
7462.65800 22.61686 1.12772
7466.23174 24.29746 1.15781
7469.80483 25.22190 1.16207
7473.37984 24.71961 1.15592
7476.95262 23.80572 1.16439
7480.52868 25.34733 1.35089
7484.10351 23.86359 1.48412
7487.67850 24.39314 1.53370
7491.25370 24.90427 1.56392
7494.82914 25.45366 1.53301
7498.40480 24.96403 1.36538
7501.98060 23.34528 1.21962
7505.55687 25.15743 1.22006
7509.13143 22.83361 1.14505
7512.70892 24.30376 1.16829
7516.28605 23.00386 1.33563
7519.86297 25.46195 1.46290
7523.44006 22.83904 1.44601
7527.01739 25.98419 1.54492
7530.59499 22.79371 1.45971
7534.17122 27.01577 1.29007
7537.75048 23.97207 1.24263
7541.32881 24.76167 1.24022
7544.90718 24.15605 1.22099
7548.48576 24.29869 1.25480
7552.06463 24.92448 1.24819
7555.64355 22.69432 1.23341
7559.22141 26.55275 1.39971
7562.80224 23.85407 1.38119
7566.38189 25.40449 1.37930
7569.96172 22.62823 1.36590
7573.54184 26.32746 1.38634
7577.12064 23.75574 1.23109
7580.70255 24.91027 1.25703
7584.28395 25.38960 1.38593
7587.86286 20.45996 1.41112
7591.44531 26.48927 1.44096
7595.02660 23.79149 1.43016
7598.60821 24.01050 1.39228
7602.18993 24.36250 1.20508
7605.77107 23.19644 1.19705
7609.35259 24.45869 1.22820
7612.93495 23.68736 1.25909
7616.51901 24.48733 1.46666
7620.10180 22.49488 1.48956
7623.68350 24.10033 1.52485
7627.26805 25.10179 1.57921
7630.85147 22.81449 1.49337
7634.43512 22.39098 1.41274
7638.01900 22.35486 1.36567
7641.60303 21.29039 1.35006
7645.18735 22.13354 1.38938
7648.77180 22.24561 1.31439
7652.35650 22.24672 1.37428
7655.94141 20.38633 1.35929
7659.52654 24.50196 1.33359
7663.11180 22.56314 1.29529
7666.69745 22.50557 1.21955
7670.28114 21.01427 1.10624
7673.86905 21.81190 1.34618
7677.45395 20.88942 1.47054
7681.04163 20.44001 1.54386
7684.62819 20.73208 1.61747
7688.21572 24.16869 1.57425
7691.80204 18.80992 1.35897
7695.38929 21.08142 1.34960
7698.97669 18.12248 1.20211
7702.56435 20.67809 1.21880
7706.15077 19.63502 1.18058
7709.73884 19.35279 1.15360
7713.32852 18.44347 1.16009
7716.91704 19.69117 1.17194
7720.50428 17.24842 1.14061
7724.09461 17.45298 1.29122
7727.68371 17.99835 1.34252
7731.27178 17.11441 1.31120
7734.86257 15.53604 1.33540
7738.45239 13.64533 1.30992
7742.04230 18.39625 1.22121
7745.63248 16.27889 1.18118
7749.22279 14.53912 1.21441
7752.81345 16.39077 1.39250
7756.40423 13.62835 1.32510
7759.99524 17.58499 1.36658
7763.58649 12.20276 1.30539
7767.17666 14.07713 1.15186
7770.76825 13.46829 1.01920
7774.36056 12.61785 1.05728
7777.95442 13.53955 1.06993
7781.54574 11.77335 1.15301
7785.13826 13.54256 1.29585
7788.73097 13.53187 1.25869
7792.32390 13.75725 1.24962
7795.91703 13.63374 1.23337
7799.51168 12.27899 1.03555
7803.10396 11.97275 0.95972
7806.69629 13.38641 0.99564
7810.28999 10.88979 0.97064
7813.88458 9.67038 0.96136
7817.48019 9.39241 1.02912
7821.07483 10.06157 1.10829
7824.66841 11.59656 1.07481
7828.26335 10.19281 1.03566
7831.85998 10.38939 1.04684
7835.45545 10.88651 0.94973
7839.04970 11.71137 0.94561
7842.64698 11.29244 0.95327
7846.24175 9.84897 0.92619
7849.83958 9.20429 0.93183
7853.43456 10.78237 0.95911
7857.03257 12.78099 1.02194
7860.62960 10.69324 1.00713
7864.22544 11.42123 0.99074
7867.82285 9.57379 0.94725
7871.42172 9.52005 0.94448
7875.01703 10.26281 0.89057
7878.61587 10.08530 0.87132
7882.21579 8.72873 0.87939
7885.81291 9.98749 0.89856
7889.41249 8.74793 0.87038
7893.01008 8.66616 0.87730
7896.61083 11.41260 0.93407
7900.20975 11.54608 0.94271
7903.80964 9.48377 0.92013
7907.40730 10.42341 0.90740
7911.00933 10.49254 0.91900
7914.60818 8.62429 0.86355
7918.20850 8.33396 0.84030
7921.81041 8.12951 0.84785
7925.40986 9.32435 0.85868
7929.01227 9.26159 0.87091
7932.61369 9.55384 0.87040
7936.21474 8.76644 0.87176
7939.81587 11.07059 0.91346
7943.41845 10.62761 0.90724
7947.02050 9.19557 0.90914
7950.62148 11.54454 0.95585
7954.22503 11.18388 0.93062
7957.82718 10.90486 0.91415
7961.43089 12.91023 0.94125
7965.03428 11.74382 0.93062
7968.63622 12.80767 0.94346
7972.24128 12.63604 0.94388
7975.84509 12.86057 0.94249
7979.44915 13.85161 0.95582
7983.05300 11.53984 0.89832
7986.65785 11.52835 0.90152
7990.26112 12.40516 0.91019
7993.86786 12.24050 0.91522
7997.47307 15.84102 0.99184
8001.07797 14.10536 0.97602
8004.68353 13.39579 0.96641
8008.28930 15.27081 0.99789
8011.89530 14.13976 0.98418
8015.50153 14.96685 0.98516
8019.10650 14.75211 0.96758
8022.71462 17.29369 1.01171
8026.32000 15.23908 1.00250
8029.92856 16.31131 1.14891
8033.53586 14.12733 1.22691
8037.14339 14.38968 1.36180
8040.75117 16.26642 1.46871
8044.35915 17.44363 1.46482
8047.96733 18.57027 1.56019
8051.57580 14.96379 1.49320
8055.18441 13.42284 1.33761
8058.79326 15.60544 1.39490
8062.40240 15.93387 1.29124
8066.01165 16.07052 1.12503
8069.62117 17.92186 1.14318
8073.23095 16.51169 1.08839
8076.84020 18.18296 1.02824
8080.45101 16.53085 1.02062
8084.06157 18.35941 1.04270
8087.67197 15.81187 1.03949
8091.28288 20.96279 1.46197
8094.89396 15.39726 1.64443
8098.50530 26.52058 1.79538
8102.11679 14.13530 1.78823
8105.72863 20.64806 1.74297
8109.34056 15.42444 1.30593
8112.95274 16.54556 1.31285
8116.56375 18.54433 1.19809
8120.17675 17.62471 1.16319
8123.79063 16.73975 1.12469
8127.40369 17.99554 1.16192
8131.01705 18.74622 1.22558
8134.63056 19.21444 1.23754
8138.24433 16.39087 1.19815
8141.85825 16.72945 1.23586
8145.47252 19.49472 1.48468
8149.08694 17.62311 1.50762
8152.70163 17.01605 1.48580
8156.31651 16.79899 1.50464
8159.93170 16.19774 1.39196
8163.54699 15.06759 1.19866
8167.16122 15.42240 1.20004
8170.77830 17.30927 1.25499
8174.39435 16.13847 1.48470
8178.01057 15.31957 1.55470
8181.62843 21.00446 1.57460
8185.24377 14.13938 1.53757
8188.86083 18.31283 1.46958
8192.47715 16.23739 1.03519
8196.09284 19.54710 1.18296
8199.71292 16.46147 1.19895
8203.33038 20.83178 1.23614
8206.94876 17.01012 1.31892
8210.56715 20.52606 1.55003
8214.18444 16.88064 1.40675
8217.80412 15.12044 1.39411
8221.42351 21.44355 1.47527
8225.04240 17.10220 1.15591
8228.66061 16.87114 1.02524
8232.28186 16.91255 1.05185
8235.90030 19.17549 1.12912
8239.52193 19.96984 1.18972
8243.14155 17.89737 1.15240
8246.76292 18.14626 1.31203
8250.38381 16.87638 1.35275
8254.00470 18.71060 1.28593
8257.62622 18.64529 1.30257
8261.24780 17.80593 1.23002
8264.86958 18.71662 1.08050
8268.49158 18.00431 1.06063
8272.11548 17.52999 1.04803
8275.73901 19.05914 1.06580
8279.35911 15.67002 1.04480
8282.98198 16.40079 1.07054
8286.60517 18.73326 1.12154
8290.22862 19.69051 1.21585
8293.85226 18.07828 1.20388
8297.47620 20.37182 1.19696
8301.10034 17.12589 1.15187
8304.72473 19.11012 1.13004
8308.34935 18.68199 1.06550
8311.97140 18.81365 1.05160
8315.59846 20.32973 1.09487
8319.22462 20.09285 1.10457
8322.85016 19.33389 1.09126
8326.47598 20.63695 1.11863
8330.10203 22.25462 1.16934
8333.72829 19.81343 1.12669
8337.35332 19.65488 1.15052
8340.98136 19.48816 1.15061
8344.60798 19.22828 1.11830
8348.23583 20.92199 1.16476
8351.86176 18.95326 1.12244
8355.49103 20.37956 1.17025
8359.11897 19.39023 1.22487
8362.74717 19.04589 1.30937
8366.37561 20.20374 1.41970
8370.00432 20.48119 1.49450
8373.63325 18.86968 1.52227
8377.26244 22.36083 1.55451
8380.89187 21.74879 1.49255
8384.52155 22.38705 1.42074
8388.15142 20.84120 1.38593
8391.78158 23.59488 1.43978
8395.41199 20.84664 1.43890
8399.04260 25.14144 1.58421
8402.67351 22.54141 1.58436
8406.30464 24.20595 1.58709
8409.93602 22.87303 1.53690
8413.56767 20.56937 1.46267
8417.19955 21.10451 1.41403
8420.83166 22.66727 1.37567
8424.46402 22.73700 1.33039
8428.09664 23.30346 1.29621
8431.72952 21.25735 1.23615
8435.36261 22.81057 1.23843
8438.99584 23.41541 1.23464
8442.63111 23.64736 1.22541
8446.26345 24.40494 1.24787
8449.89757 25.22081 1.25023
8453.53190 22.38396 1.20276
8457.16505 24.00101 1.20090
8460.80133 22.75776 1.18420
8464.43650 24.43081 1.21439
8468.07184 24.21131 1.21293
8471.70610 19.87154 1.17418
8475.34334 22.40223 1.19209
8478.97943 24.13475 1.22242
8482.61585 24.63772 1.22333
8486.25246 21.17472 1.17132
8489.88735 23.57194 1.21008
8493.52637 25.04190 1.40820
8497.16379 23.23300 1.60859
8500.80143 25.77481 1.84031
8504.43936 25.05105 1.99362
8508.07753 25.48102 2.00260
8511.71593 22.73673 2.05193
8515.35466 27.43587 2.05001
8518.99356 24.92607 1.78979
8522.63269 27.91563 1.82498
8526.27223 26.01346 1.71764
8529.91191 23.13217 1.39430
8533.55205 25.09001 1.42570
8537.19204 23.25945 1.37461
8540.83267 25.73508 1.29974
8544.47219 27.79521 1.28645
8548.11422 23.33725 1.25222
8551.75560 25.43668 1.26545
8555.39981 21.65018 1.32160
8559.03872 29.05071 1.95639
8562.68082 22.18878 2.15007
8566.32312 25.00119 2.23175
8569.96570 23.34553 2.41359
8573.60862 25.19620 2.19039
8577.25161 24.50528 1.70490
8580.89360 25.97578 1.70779
8584.53865 22.35972 1.48090
8588.18249 28.62099 1.46723
8591.82916 24.23604 1.41177
8595.47103 25.13088 1.41938
8599.11566 24.74416 1.52469
8602.76066 26.60751 1.58832
8606.40586 25.09844 1.56334
8610.05141 22.67523 1.52027
8613.69702 23.59289 1.54703
8617.34310 27.69154 1.94263
8620.98943 22.61703 1.94091
8624.63595 25.22556 1.96758
8628.28283 24.90344 1.97816
8631.92994 24.00051 1.73113
8635.57727 24.75539 1.62746
8639.22485 23.37815 1.62857
8642.87243 25.62323 1.63425
8646.52090 21.99375 1.70856
8650.16940 24.47002 2.05782
8653.81814 22.98218 2.04454
8657.46712 22.35034 2.04444
8661.11643 23.63167 2.05435
8664.76606 26.69587 1.68539
8668.41454 23.61074 1.33955
8672.06504 23.56803 1.54612
8675.71618 24.88215 1.60902
8679.36688 25.58292 1.62117
8683.01769 24.45033 1.66764
8686.66897 25.10677 1.95484
8690.32034 20.77824 1.87026
8693.97220 26.89872 1.92974
8697.62422 22.44099 1.89786
8701.27662 22.77493 1.64030
8704.92865 21.31608 1.27063
8708.58102 22.01795 1.30516
8712.23484 22.21326 1.32573
8715.88853 18.45473 1.38236
8719.54222 20.76019 1.45890
8723.19643 18.92124 1.44300
8726.85043 18.19631 1.58359
8730.50505 21.35630 1.72728
8734.15990 20.32395 1.63080
8737.81496 22.81601 1.68630
8741.47047 19.64936 1.56928
8745.12261 19.51206 1.27452
8748.78418 20.97028 1.25500
8752.43830 19.66103 1.26575
8756.09482 21.83701 1.30489
8759.75170 24.84581 1.37780
8763.40776 22.72523 1.40604
8767.06615 22.82499 1.44515
8770.72381 22.47135 1.45975
8774.38177 23.15005 1.59738
8778.04012 23.31879 1.62342
8781.69708 22.95207 1.54300
8785.35708 20.99156 1.53768
8789.01666 20.38827 1.47339
8792.67606 24.63028 1.42043
8796.33578 20.96883 1.35651
8799.99550 20.89823 1.33867
8803.65562 20.20052 1.32359
8807.31659 18.54784 1.28417
8810.97772 22.30411 1.34446
8814.63870 21.46606 1.34595
8818.30023 20.11244 1.36640
8821.96197 23.10261 1.43146
8825.62399 18.06381 1.39566
8829.28640 17.41760 1.42632
8832.94906 21.30653 1.45124
8836.61198 19.11799 1.42540
8840.27528 21.08550 1.41846
8843.93881 22.64885 1.38901
8847.60262 22.14956 1.37516
8851.26609 22.79685 1.37503
8854.93125 22.05573 1.37392
8858.59602 19.03559 1.31510
8862.26087 19.17142 1.32006
8865.92738 20.35750 1.34995
8869.59181 20.55284 1.37213
8873.25804 20.39464 1.37432
8876.92428 20.74896 1.42571
8880.59074 18.62349 1.40236
8884.25931 21.98542 1.50350
8887.92483 22.24405 1.52308
8891.59207 23.12215 1.50834
8895.26005 21.82470 1.48406
8898.92815 21.03435 1.40981
8902.59659 20.87245 1.41387
8906.26512 18.84791 1.37049
8909.93423 21.88357 1.44399
8913.60381 21.66373 1.45446
8917.27318 20.95631 1.44839
8920.94310 20.91223 1.48541
8924.61333 21.53604 1.52564
8928.28416 22.24280 1.54855
8931.95468 20.85219 1.54890
8935.62593 20.75463 1.59014
8939.29742 23.70951 1.69155
8942.96922 18.83726 1.62117
8946.64133 22.39404 1.73125
8950.31378 20.28037 1.70017
8953.98652 22.98016 1.74891
8957.65957 24.72324 1.79049
8961.33298 21.61507 1.72750
8965.00664 20.19400 1.68941
8968.68065 21.02287 1.71303
8972.35497 20.62857 1.74025
8976.02963 22.11646 1.77758
8979.70462 21.77385 1.75921
8983.37987 19.93815 1.74798
8987.05544 21.85678 1.78612
8990.73141 21.75958 1.77507
8994.40764 20.68029 1.76412
8998.08421 16.02972 1.67908
9001.76110 18.97940 1.73085
9005.43829 18.26565 1.74494
9009.11586 16.99271 1.74603
9012.79367 18.21475 1.81069
9016.47192 20.39445 1.85819
9020.15036 14.44484 1.78306
9023.82924 18.17184 2.17895
9027.50836 10.64658 2.42421
9031.18790 14.84698 2.95050
9034.86775 13.20045 3.09444
9038.54789 22.32563 3.21264
9042.22841 8.79365 3.07332
9045.90925 12.68164 2.73274
9049.59033 13.49658 2.45460
9053.27184 17.25603 2.47690
9056.95365 10.38884 2.05034
9060.63578 11.37524 1.87992
9064.31822 10.21491 1.89854
9068.00103 10.51853 1.89381
9071.68420 10.93925 1.79106
9075.36763 10.58413 1.75264
9079.05147 11.53911 1.78642
9082.73558 14.54789 1.84868
9086.42000 11.53927 1.90984
9090.10478 12.87006 2.70795
9093.79003 13.72513 3.40995
9097.47556 7.95559 3.32774
9101.16137 9.40129 3.41709
9104.84766 16.37005 3.19457
9108.53415 10.71960 2.12857
9112.22092 16.47023 2.06932
9115.90807 15.63340 2.15263
9119.59547 18.80885 2.27981
9123.28352 15.71099 2.25073
9126.97178 18.27759 2.29197
9130.66033 12.45779 2.16717
9134.34924 15.87142 2.40770
9138.03854 13.31803 2.43005
9141.72812 13.11030 2.45801
9145.41812 13.58898 2.48281
9149.10839 13.00557 2.35066
9152.79901 15.06990 2.76198
9156.49006 14.85244 3.06413
9160.18143 16.11132 3.10501
9163.87314 9.35392 3.04859
9167.56524 12.53359 2.82840
9171.25756 19.86920 2.72164
9174.95038 14.37766 2.75635
9178.64473 12.31407 2.65773
9182.33696 13.29214 2.71532
9186.03072 12.47846 2.62889
9189.72490 22.72989 3.08386
9193.41948 14.07043 3.12084
9197.11434 18.80589 3.23507
9200.80966 18.42353 3.24052
9204.48900 12.33820 2.98097
9208.17851 16.27909 2.85207
9211.87459 12.45791 2.89239
9215.57132 15.84411 3.39469
9219.28577 10.58438 3.29679
9222.98869 17.05446 2.83827
9226.68646 9.13172 2.72431
9230.38458 16.33264 2.80700
9234.08309 16.12554 2.77351
9237.78197 11.69144 2.66441
9241.48117 9.60202 2.67224
9245.18081 16.42685 2.67329
9248.88075 17.28534 2.55302
9252.58104 17.19072 2.55343
9256.28176 13.59531 2.48836
9259.98280 15.77303 2.59352
9263.68426 10.50014 2.72866
9267.38606 14.80581 2.87697
9271.08787 16.85551 2.94044
9274.79076 14.18598 3.05866
9278.49371 14.62798 3.35868
9282.19704 16.32587 3.36953
9285.90068 15.58364 3.38909
9289.60474 19.53162 3.39528
9293.30922 13.89182 2.87651
9297.01397 14.24823 2.62723
9300.71910 18.48142 2.73030
9304.42460 21.62362 2.80113
9308.13057 19.60548 2.78914
9311.83686 14.63753 2.70686
9315.54353 18.50435 2.90042
9319.25061 23.19165 3.14947
9322.95809 20.76963 3.12440
9326.66591 16.68620 3.10228
9330.37413 17.72214 3.25120
9334.08272 17.71967 3.18974
9337.79167 12.83702 3.09590
9341.50107 19.07367 3.23563
9345.21079 18.21578 3.12004
9348.92097 20.95841 3.11892
9352.63145 11.35119 2.86595
9356.34238 20.03868 3.10351
9360.05365 16.41815 3.06537
9363.76537 23.65264 3.24209
9367.47744 18.06558 3.18221
9371.18989 23.41954 3.32909
9374.90278 18.99032 3.49179
9378.61606 23.43752 3.50666
9382.32971 14.39079 3.55947
9386.04370 23.99687 3.87305
